# Onda Corporation
# Hydrophone Calibration Data
#
Calibration_DATE	22-Jun-2018
#
# Hydrophone description
HYD_MFG	Onda
HYD_MODEL	HGL
HYD_APERTURE_NOM_UM	1000
HYD_SN	1745
HYD_POLARITY	Positive
#
# External preamplifier description
AMP_MFG	ONDA
AMP_MODEL	AG-2010
AMP_SN	1199
AMP_GAIN_NOM_DB	20
AMP_BW_MHZ	60
AMP_OUTPUT_IMP_NOM_OHMS	50
#
# Cable/adaptor between hydrophone and preamplifier
CA_BWT_HYD_AMP	none
#
# Environment
ELECTRICAL_LOAD	50Ohms
SOFTWARE_VERSION	1.0.5.0
SYSTEM_SETTING	OndaCombineCal.exe
WATER_TEMP_DEGC	23.50
WATER_RESISTIVITY_MOHMS-CM	3.5
#
# Calibration data
# Freq(MHz) Sens(dB re. 1V/uPa) Sens(V/Pa) Sens(V^2cm^2/W)
#
DATA_FIELDS	4
DATA_FIELD	FREQ_MHZ
DATA_FIELD	SENS_DB
DATA_FIELD	SENS_VPERPA
DATA_FIELD	SENS_V2CM2PERW
# End of file header
HEADER_END	0
1.000	-224.81	5.750E-006	4.960E-001
1.050	-225.07	5.578E-006	4.668E-001
1.100	-225.18	5.507E-006	4.549E-001
1.150	-225.39	5.377E-006	4.337E-001
1.200	-225.44	5.348E-006	4.290E-001
1.250	-225.53	5.289E-006	4.196E-001
1.300	-225.63	5.232E-006	4.106E-001
1.350	-225.64	5.225E-006	4.095E-001
1.400	-225.75	5.160E-006	3.995E-001
1.450	-225.73	5.172E-006	4.012E-001
1.500	-225.64	5.225E-006	4.095E-001
1.550	-225.72	5.176E-006	4.019E-001
1.600	-225.76	5.154E-006	3.985E-001
1.650	-225.76	5.154E-006	3.985E-001
1.700	-225.79	5.133E-006	3.953E-001
1.750	-225.79	5.134E-006	3.954E-001
1.800	-225.86	5.091E-006	3.887E-001
1.850	-225.90	5.068E-006	3.853E-001
1.900	-225.93	5.055E-006	3.833E-001
1.950	-225.93	5.053E-006	3.829E-001
2.000	-225.89	5.077E-006	3.867E-001
2.050	-225.90	5.071E-006	3.858E-001
2.100	-225.94	5.047E-006	3.821E-001
2.150	-225.86	5.094E-006	3.892E-001
2.200	-225.90	5.072E-006	3.860E-001
2.250	-225.92	5.056E-006	3.835E-001
2.300	-225.73	5.170E-006	4.010E-001
2.350	-225.76	5.150E-006	3.979E-001
2.400	-225.71	5.182E-006	4.028E-001
2.450	-225.66	5.210E-006	4.071E-001
2.500	-225.77	5.148E-006	3.975E-001
2.550	-225.67	5.206E-006	4.065E-001
2.600	-225.72	5.178E-006	4.021E-001
2.650	-225.67	5.204E-006	4.062E-001
2.700	-225.67	5.207E-006	4.068E-001
2.750	-225.72	5.177E-006	4.020E-001
2.800	-225.67	5.205E-006	4.063E-001
2.850	-225.65	5.219E-006	4.086E-001
2.900	-225.63	5.230E-006	4.103E-001
2.950	-225.61	5.241E-006	4.120E-001
3.000	-225.61	5.242E-006	4.122E-001
3.050	-225.63	5.232E-006	4.105E-001
3.100	-225.63	5.228E-006	4.099E-001
3.150	-225.58	5.263E-006	4.154E-001
3.200	-225.58	5.262E-006	4.154E-001
3.250	-225.60	5.248E-006	4.131E-001
3.300	-225.67	5.204E-006	4.062E-001
3.350	-225.73	5.172E-006	4.012E-001
3.400	-225.67	5.206E-006	4.065E-001
3.450	-225.62	5.236E-006	4.113E-001
3.500	-225.60	5.250E-006	4.134E-001
3.550	-225.56	5.272E-006	4.169E-001
3.600	-225.59	5.256E-006	4.145E-001
3.650	-225.55	5.276E-006	4.175E-001
3.700	-225.54	5.286E-006	4.192E-001
3.750	-225.57	5.264E-006	4.157E-001
3.800	-225.55	5.278E-006	4.178E-001
3.850	-225.54	5.283E-006	4.187E-001
3.900	-225.47	5.325E-006	4.253E-001
3.950	-225.44	5.347E-006	4.288E-001
4.000	-225.49	5.315E-006	4.238E-001
4.050	-225.47	5.326E-006	4.255E-001
4.100	-225.46	5.336E-006	4.271E-001
4.150	-225.49	5.313E-006	4.235E-001
4.200	-225.48	5.324E-006	4.252E-001
4.250	-225.47	5.326E-006	4.255E-001
4.300	-225.45	5.341E-006	4.279E-001
4.350	-225.42	5.360E-006	4.310E-001
4.400	-225.45	5.340E-006	4.278E-001
4.450	-225.42	5.356E-006	4.303E-001
4.500	-225.39	5.374E-006	4.332E-001
4.550	-225.43	5.355E-006	4.301E-001
4.600	-225.40	5.371E-006	4.326E-001
4.650	-225.41	5.362E-006	4.313E-001
4.700	-225.44	5.345E-006	4.285E-001
4.750	-225.41	5.364E-006	4.315E-001
4.800	-225.42	5.357E-006	4.305E-001
4.850	-225.43	5.351E-006	4.295E-001
4.900	-225.45	5.342E-006	4.280E-001
4.950	-225.45	5.339E-006	4.276E-001
5.000	-225.40	5.371E-006	4.327E-001
5.050	-225.42	5.357E-006	4.304E-001
5.100	-225.44	5.345E-006	4.286E-001
5.150	-225.39	5.375E-006	4.334E-001
5.200	-225.42	5.360E-006	4.310E-001
5.250	-225.43	5.351E-006	4.294E-001
5.300	-225.42	5.361E-006	4.311E-001
5.350	-225.42	5.360E-006	4.309E-001
5.400	-225.39	5.374E-006	4.332E-001
5.450	-225.42	5.360E-006	4.309E-001
5.500	-225.46	5.333E-006	4.266E-001
5.550	-225.43	5.350E-006	4.293E-001
5.600	-225.44	5.347E-006	4.289E-001
5.650	-225.42	5.356E-006	4.304E-001
5.700	-225.43	5.352E-006	4.297E-001
5.750	-225.46	5.333E-006	4.266E-001
5.800	-225.44	5.343E-006	4.283E-001
5.850	-225.46	5.333E-006	4.267E-001
5.900	-225.46	5.336E-006	4.271E-001
5.950	-225.42	5.357E-006	4.304E-001
6.000	-225.46	5.335E-006	4.270E-001
6.050	-225.45	5.341E-006	4.279E-001
6.100	-225.40	5.371E-006	4.327E-001
6.150	-225.40	5.370E-006	4.326E-001
6.200	-225.39	5.375E-006	4.334E-001
6.250	-225.41	5.363E-006	4.314E-001
6.300	-225.45	5.338E-006	4.275E-001
6.350	-225.44	5.348E-006	4.290E-001
6.400	-225.42	5.358E-006	4.306E-001
6.450	-225.39	5.375E-006	4.334E-001
6.500	-225.39	5.378E-006	4.339E-001
6.550	-225.42	5.361E-006	4.311E-001
6.600	-225.39	5.379E-006	4.340E-001
6.650	-225.40	5.372E-006	4.329E-001
6.700	-225.42	5.355E-006	4.302E-001
6.750	-225.42	5.358E-006	4.307E-001
6.800	-225.41	5.366E-006	4.320E-001
6.850	-225.38	5.380E-006	4.341E-001
6.900	-225.37	5.388E-006	4.354E-001
6.950	-225.40	5.372E-006	4.329E-001
7.000	-225.40	5.368E-006	4.322E-001
7.050	-225.43	5.355E-006	4.301E-001
7.100	-225.43	5.354E-006	4.300E-001
7.150	-225.38	5.381E-006	4.343E-001
7.200	-225.37	5.389E-006	4.356E-001
7.250	-225.37	5.391E-006	4.359E-001
7.300	-225.40	5.368E-006	4.322E-001
7.350	-225.41	5.366E-006	4.319E-001
7.400	-225.42	5.356E-006	4.302E-001
7.450	-225.42	5.357E-006	4.304E-001
7.500	-225.43	5.351E-006	4.295E-001
7.550	-225.43	5.352E-006	4.297E-001
7.600	-225.43	5.355E-006	4.301E-001
7.650	-225.43	5.352E-006	4.297E-001
7.700	-225.41	5.363E-006	4.314E-001
7.750	-225.40	5.370E-006	4.325E-001
7.800	-225.39	5.376E-006	4.336E-001
7.850	-225.35	5.398E-006	4.371E-001
7.900	-225.37	5.392E-006	4.360E-001
7.950	-225.33	5.417E-006	4.401E-001
8.000	-225.35	5.402E-006	4.377E-001
8.050	-225.40	5.370E-006	4.326E-001
8.100	-225.43	5.354E-006	4.301E-001
8.150	-225.43	5.354E-006	4.300E-001
8.200	-225.40	5.372E-006	4.328E-001
8.250	-225.39	5.376E-006	4.336E-001
8.300	-225.37	5.387E-006	4.353E-001
8.350	-225.34	5.410E-006	4.390E-001
8.400	-225.33	5.414E-006	4.396E-001
8.450	-225.30	5.432E-006	4.426E-001
8.500	-225.26	5.456E-006	4.466E-001
8.550	-225.23	5.475E-006	4.496E-001
8.600	-225.25	5.466E-006	4.481E-001
8.650	-225.26	5.456E-006	4.464E-001
8.700	-225.26	5.455E-006	4.464E-001
8.750	-225.22	5.481E-006	4.505E-001
8.800	-225.16	5.518E-006	4.568E-001
8.850	-225.20	5.496E-006	4.531E-001
8.900	-225.27	5.450E-006	4.456E-001
8.950	-225.26	5.456E-006	4.466E-001
9.000	-225.20	5.493E-006	4.525E-001
9.050	-225.16	5.521E-006	4.572E-001
9.100	-225.17	5.517E-006	4.565E-001
9.150	-225.17	5.518E-006	4.567E-001
9.200	-225.21	5.492E-006	4.525E-001
9.250	-225.22	5.484E-006	4.511E-001
9.300	-225.20	5.495E-006	4.530E-001
9.350	-225.20	5.497E-006	4.533E-001
9.400	-225.20	5.493E-006	4.526E-001
9.450	-225.22	5.484E-006	4.512E-001
9.500	-225.24	5.473E-006	4.493E-001
9.550	-225.26	5.459E-006	4.471E-001
9.600	-225.29	5.437E-006	4.435E-001
9.650	-225.32	5.422E-006	4.410E-001
9.700	-225.28	5.447E-006	4.451E-001
9.750	-225.26	5.457E-006	4.467E-001
9.800	-225.25	5.462E-006	4.476E-001
9.850	-225.25	5.465E-006	4.480E-001
9.900	-225.26	5.460E-006	4.472E-001
9.950	-225.23	5.476E-006	4.497E-001
10.000	-225.23	5.479E-006	4.502E-001
10.050	-225.23	5.476E-006	4.498E-001
10.100	-225.20	5.498E-006	4.534E-001
10.150	-225.19	5.504E-006	4.544E-001
10.200	-225.17	5.516E-006	4.564E-001
10.250	-225.15	5.526E-006	4.580E-001
10.300	-225.17	5.513E-006	4.559E-001
10.350	-225.16	5.522E-006	4.574E-001
10.400	-225.13	5.537E-006	4.599E-001
10.450	-225.14	5.536E-006	4.596E-001
10.500	-225.16	5.520E-006	4.571E-001
10.550	-225.18	5.507E-006	4.550E-001
10.600	-225.18	5.510E-006	4.555E-001
10.650	-225.15	5.530E-006	4.586E-001
10.700	-225.15	5.528E-006	4.583E-001
10.750	-225.16	5.522E-006	4.575E-001
10.800	-225.16	5.519E-006	4.568E-001
10.850	-225.16	5.520E-006	4.571E-001
10.900	-225.14	5.533E-006	4.592E-001
10.950	-225.14	5.535E-006	4.596E-001
11.000	-225.16	5.522E-006	4.574E-001
11.050	-225.19	5.503E-006	4.543E-001
11.100	-225.18	5.507E-006	4.550E-001
11.150	-225.14	5.532E-006	4.590E-001
11.200	-225.12	5.544E-006	4.611E-001
11.250	-225.14	5.530E-006	4.588E-001
11.300	-225.15	5.530E-006	4.587E-001
11.350	-225.13	5.541E-006	4.606E-001
11.400	-225.14	5.533E-006	4.592E-001
11.450	-225.12	5.545E-006	4.612E-001
11.500	-225.13	5.539E-006	4.602E-001
11.550	-225.18	5.511E-006	4.556E-001
11.600	-225.19	5.501E-006	4.539E-001
11.650	-225.18	5.508E-006	4.550E-001
11.700	-225.15	5.525E-006	4.579E-001
11.750	-225.16	5.523E-006	4.575E-001
11.800	-225.19	5.505E-006	4.545E-001
11.850	-225.15	5.525E-006	4.578E-001
11.900	-225.10	5.556E-006	4.631E-001
11.950	-225.10	5.560E-006	4.638E-001
12.000	-225.09	5.568E-006	4.650E-001
12.050	-225.14	5.532E-006	4.590E-001
12.100	-225.15	5.528E-006	4.584E-001
12.150	-225.13	5.540E-006	4.603E-001
12.200	-225.18	5.511E-006	4.556E-001
12.250	-225.14	5.532E-006	4.591E-001
12.300	-225.10	5.561E-006	4.639E-001
12.350	-225.08	5.575E-006	4.662E-001
12.400	-225.08	5.575E-006	4.662E-001
12.450	-225.10	5.556E-006	4.631E-001
12.500	-225.11	5.550E-006	4.620E-001
12.550	-225.05	5.590E-006	4.686E-001
12.600	-225.01	5.616E-006	4.730E-001
12.650	-225.09	5.564E-006	4.644E-001
12.700	-225.17	5.517E-006	4.566E-001
12.750	-225.11	5.552E-006	4.624E-001
12.800	-225.06	5.586E-006	4.680E-001
12.850	-225.06	5.587E-006	4.682E-001
12.900	-225.02	5.612E-006	4.725E-001
12.950	-225.05	5.590E-006	4.687E-001
13.000	-225.12	5.547E-006	4.616E-001
13.050	-225.10	5.562E-006	4.640E-001
13.100	-225.11	5.554E-006	4.627E-001
13.150	-225.10	5.559E-006	4.635E-001
13.200	-225.09	5.568E-006	4.651E-001
13.250	-225.06	5.582E-006	4.674E-001
13.300	-225.06	5.583E-006	4.676E-001
13.350	-225.08	5.573E-006	4.659E-001
13.400	-225.06	5.582E-006	4.674E-001
13.450	-225.10	5.559E-006	4.635E-001
13.500	-225.13	5.541E-006	4.605E-001
13.550	-225.10	5.561E-006	4.638E-001
13.600	-225.06	5.587E-006	4.682E-001
13.650	-225.00	5.626E-006	4.747E-001
13.700	-224.96	5.648E-006	4.785E-001
13.750	-224.99	5.628E-006	4.752E-001
13.800	-225.02	5.612E-006	4.724E-001
13.850	-225.00	5.623E-006	4.743E-001
13.900	-224.95	5.654E-006	4.796E-001
13.950	-224.91	5.684E-006	4.846E-001
14.000	-224.89	5.697E-006	4.869E-001
14.050	-224.91	5.682E-006	4.843E-001
14.100	-224.90	5.686E-006	4.850E-001
14.150	-224.87	5.711E-006	4.892E-001
14.200	-224.85	5.722E-006	4.912E-001
14.250	-224.87	5.707E-006	4.886E-001
14.300	-224.93	5.669E-006	4.820E-001
14.350	-224.95	5.653E-006	4.793E-001
14.400	-224.97	5.642E-006	4.775E-001
14.450	-224.95	5.656E-006	4.799E-001
14.500	-224.91	5.680E-006	4.839E-001
14.550	-224.91	5.682E-006	4.842E-001
14.600	-224.89	5.694E-006	4.863E-001
14.650	-224.87	5.711E-006	4.893E-001
14.700	-224.86	5.716E-006	4.901E-001
14.750	-224.89	5.698E-006	4.871E-001
14.800	-224.90	5.687E-006	4.851E-001
14.850	-224.97	5.642E-006	4.774E-001
14.900	-224.95	5.656E-006	4.798E-001
14.950	-224.93	5.670E-006	4.822E-001
15.000	-224.85	5.719E-006	4.906E-001
15.050	-224.83	5.731E-006	4.927E-001
15.100	-224.86	5.712E-006	4.893E-001
15.150	-224.91	5.682E-006	4.843E-001
15.200	-224.92	5.678E-006	4.836E-001
15.250	-224.85	5.722E-006	4.911E-001
15.300	-224.81	5.745E-006	4.950E-001
15.350	-224.81	5.747E-006	4.954E-001
15.400	-224.90	5.688E-006	4.854E-001
15.450	-224.84	5.730E-006	4.925E-001
15.500	-224.76	5.782E-006	5.015E-001
15.550	-224.78	5.767E-006	4.989E-001
15.600	-224.79	5.759E-006	4.976E-001
15.650	-224.80	5.753E-006	4.964E-001
15.700	-224.80	5.757E-006	4.972E-001
15.750	-224.81	5.751E-006	4.961E-001
15.800	-224.80	5.753E-006	4.964E-001
15.850	-224.82	5.744E-006	4.950E-001
15.900	-224.83	5.735E-006	4.934E-001
15.950	-224.80	5.754E-006	4.966E-001
16.000	-224.73	5.800E-006	5.046E-001
16.050	-224.72	5.810E-006	5.064E-001
16.100	-224.73	5.798E-006	5.043E-001
16.150	-224.77	5.775E-006	5.003E-001
16.200	-224.81	5.747E-006	4.954E-001
16.250	-224.81	5.750E-006	4.960E-001
16.300	-224.79	5.759E-006	4.975E-001
16.350	-224.78	5.765E-006	4.985E-001
16.400	-224.77	5.775E-006	5.003E-001
16.450	-224.80	5.755E-006	4.968E-001
16.500	-224.83	5.737E-006	4.936E-001
16.550	-224.82	5.742E-006	4.946E-001
16.600	-224.75	5.786E-006	5.023E-001
16.650	-224.68	5.834E-006	5.106E-001
16.700	-224.74	5.797E-006	5.041E-001
16.750	-224.76	5.780E-006	5.012E-001
16.800	-224.72	5.808E-006	5.060E-001
16.850	-224.67	5.839E-006	5.113E-001
16.900	-224.69	5.828E-006	5.095E-001
16.950	-224.66	5.848E-006	5.130E-001
17.000	-224.69	5.826E-006	5.092E-001
17.050	-224.68	5.832E-006	5.102E-001
17.100	-224.68	5.832E-006	5.102E-001
17.150	-224.68	5.836E-006	5.110E-001
17.200	-224.65	5.855E-006	5.142E-001
17.250	-224.74	5.793E-006	5.034E-001
17.300	-224.72	5.810E-006	5.063E-001
17.350	-224.57	5.906E-006	5.233E-001
17.400	-224.71	5.817E-006	5.076E-001
17.450	-224.62	5.875E-006	5.177E-001
17.500	-224.56	5.914E-006	5.246E-001
17.550	-224.62	5.876E-006	5.178E-001
17.600	-224.61	5.884E-006	5.193E-001
17.650	-224.62	5.873E-006	5.174E-001
17.700	-224.60	5.890E-006	5.204E-001
17.750	-224.54	5.932E-006	5.278E-001
17.800	-224.55	5.925E-006	5.265E-001
17.850	-224.59	5.896E-006	5.214E-001
17.900	-224.55	5.924E-006	5.264E-001
17.950	-224.50	5.957E-006	5.323E-001
18.000	-224.45	5.989E-006	5.380E-001
18.050	-224.43	6.008E-006	5.414E-001
18.100	-224.45	5.988E-006	5.378E-001
18.150	-224.46	5.986E-006	5.375E-001
18.200	-224.51	5.950E-006	5.310E-001
18.250	-224.39	6.032E-006	5.457E-001
18.300	-224.45	5.991E-006	5.385E-001
18.350	-224.52	5.942E-006	5.295E-001
18.400	-224.45	5.988E-006	5.379E-001
18.450	-224.42	6.014E-006	5.425E-001
18.500	-224.46	5.985E-006	5.373E-001
18.550	-224.44	5.999E-006	5.397E-001
18.600	-224.47	5.976E-006	5.357E-001
18.650	-224.50	5.954E-006	5.317E-001
18.700	-224.54	5.929E-006	5.273E-001
18.750	-224.54	5.927E-006	5.270E-001
18.800	-224.50	5.958E-006	5.324E-001
18.850	-224.51	5.947E-006	5.305E-001
18.900	-224.49	5.966E-006	5.339E-001
18.950	-224.42	6.015E-006	5.427E-001
19.000	-224.39	6.034E-006	5.461E-001
19.050	-224.38	6.041E-006	5.473E-001
19.100	-224.41	6.018E-006	5.432E-001
19.150	-224.42	6.013E-006	5.424E-001
19.200	-224.52	5.943E-006	5.298E-001
19.250	-224.46	5.986E-006	5.374E-001
19.300	-224.44	5.998E-006	5.397E-001
19.350	-224.47	5.976E-006	5.356E-001
19.400	-224.30	6.094E-006	5.570E-001
19.450	-224.22	6.153E-006	5.680E-001
19.500	-224.28	6.107E-006	5.595E-001
19.550	-224.37	6.049E-006	5.489E-001
19.600	-224.37	6.044E-006	5.480E-001
19.650	-224.32	6.080E-006	5.545E-001
19.700	-224.26	6.122E-006	5.621E-001
19.750	-224.21	6.157E-006	5.687E-001
19.800	-224.20	6.164E-006	5.698E-001
19.850	-224.17	6.187E-006	5.743E-001
19.900	-224.17	6.188E-006	5.745E-001
19.950	-224.20	6.167E-006	5.704E-001
20.000	-224.23	6.145E-006	5.664E-001
